Peso,560.33
time,(N)
0.000000,1.534283E+0
0.005000,1.527165E+0
0.010000,1.529754E+0
0.015000,1.526518E+0
0.020000,1.529754E+0
0.025000,1.529754E+0
0.030000,1.531048E+0
0.035000,1.529754E+0
0.040000,1.528459E+0
0.045000,1.527165E+0
0.050000,1.528459E+0
0.055000,1.532342E+0
0.060000,1.535577E+0
0.065000,1.535577E+0
0.070000,1.539459E+0
0.075000,1.537518E+0
0.080000,1.540754E+0
0.085000,1.534930E+0
0.090000,1.536871E+0
0.095000,1.535577E+0
0.100000,1.531048E+0
0.105000,1.534930E+0
0.110000,1.530401E+0
0.115000,1.534283E+0
0.120000,1.533636E+0
0.125000,1.536224E+0
0.130000,1.533636E+0
0.135000,1.536224E+0
0.140000,1.534930E+0
0.145000,1.538165E+0
0.150000,1.543342E+0
0.155000,1.545930E+0
0.160000,1.553695E+0
0.165000,1.552401E+0
0.170000,1.558871E+0
0.175000,1.557577E+0
0.180000,1.563401E+0
0.185000,1.563401E+0
0.190000,1.567930E+0
0.195000,1.568577E+0
0.200000,1.573107E+0
0.205000,1.579577E+0
0.210000,1.584107E+0
0.215000,1.585401E+0
0.220000,1.591225E+0
0.225000,1.595107E+0
0.230000,1.600283E+0
0.235000,1.605460E+0
0.240000,1.610636E+0
0.245000,1.620990E+0
0.250000,1.628754E+0
0.255000,1.635872E+0
0.260000,1.639754E+0
0.265000,1.643637E+0
0.270000,1.650754E+0
0.275000,1.655931E+0
0.280000,1.660460E+0
0.285000,1.664990E+0
0.290000,1.672755E+0
0.295000,1.675990E+0
0.300000,1.686990E+0
0.305000,1.691519E+0
0.310000,1.699931E+0
0.315000,1.703167E+0
0.320000,1.710284E+0
0.325000,1.718049E+0
0.330000,1.722578E+0
0.335000,1.733579E+0
0.340000,1.742637E+0
0.345000,1.748461E+0
0.350000,1.758814E+0
0.355000,1.760108E+0
0.360000,1.765285E+0
0.365000,1.772402E+0
0.370000,1.780167E+0
0.375000,1.782108E+0
0.380000,1.790520E+0
0.385000,1.795050E+0
0.390000,1.803461E+0
0.395000,1.808638E+0
0.400000,1.815109E+0
0.405000,1.823520E+0
0.410000,1.823520E+0
0.415000,1.830638E+0
0.420000,1.834520E+0
0.425000,1.842285E+0
0.430000,1.850050E+0
0.435000,1.855227E+0
0.440000,1.860403E+0
0.445000,1.864932E+0
0.450000,1.868168E+0
0.455000,1.870109E+0
0.460000,1.873344E+0
0.465000,1.874638E+0
0.470000,1.879815E+0
0.475000,1.879815E+0
0.480000,1.886933E+0
0.485000,1.890815E+0
0.490000,1.895344E+0
0.495000,1.899227E+0
0.500000,1.897286E+0
0.505000,1.899874E+0
0.510000,1.898580E+0
0.515000,1.903756E+0
0.520000,1.907639E+0
0.525000,1.910227E+0
0.530000,1.913462E+0
0.535000,1.914109E+0
0.540000,1.914109E+0
0.545000,1.910874E+0
0.550000,1.910227E+0
0.555000,1.908286E+0
0.560000,1.909580E+0
0.565000,1.906345E+0
0.570000,1.905050E+0
0.575000,1.904403E+0
0.580000,1.904403E+0
0.585000,1.903756E+0
0.590000,1.903109E+0
0.595000,1.899874E+0
0.600000,1.896639E+0
0.605000,1.894050E+0
0.610000,1.892756E+0
0.615000,1.890815E+0
0.620000,1.890168E+0
0.625000,1.886286E+0
0.630000,1.883697E+0
0.635000,1.880462E+0
0.640000,1.874638E+0
0.645000,1.870756E+0
0.650000,1.862991E+0
0.655000,1.856521E+0
0.660000,1.853932E+0
0.665000,1.849403E+0
0.670000,1.841638E+0
0.675000,1.840344E+0
0.680000,1.837109E+0
0.685000,1.829991E+0
0.690000,1.824167E+0
0.695000,1.819638E+0
0.700000,1.812520E+0
0.705000,1.807991E+0
0.710000,1.803461E+0
0.715000,1.800873E+0
0.720000,1.793108E+0
0.725000,1.785991E+0
0.730000,1.778226E+0
0.735000,1.768520E+0
0.740000,1.763991E+0
0.745000,1.755579E+0
0.750000,1.749108E+0
0.755000,1.742637E+0
0.760000,1.732284E+0
0.765000,1.729696E+0
0.770000,1.721931E+0
0.775000,1.716755E+0
0.780000,1.708990E+0
0.785000,1.706402E+0
0.790000,1.696696E+0
0.795000,1.688931E+0
0.800000,1.687637E+0
0.805000,1.679225E+0
0.810000,1.677931E+0
0.815000,1.668872E+0
0.820000,1.661107E+0
0.825000,1.654637E+0
0.830000,1.644284E+0
0.835000,1.638460E+0
0.840000,1.631990E+0
0.845000,1.623578E+0
0.850000,1.619695E+0
0.855000,1.615166E+0
0.860000,1.610636E+0
0.865000,1.606107E+0
0.870000,1.599636E+0
0.875000,1.597048E+0
0.880000,1.587342E+0
0.885000,1.585401E+0
0.890000,1.582166E+0
0.895000,1.577636E+0
0.900000,1.577636E+0
0.905000,1.570519E+0
0.910000,1.569224E+0
0.915000,1.562754E+0
0.920000,1.556930E+0
0.925000,1.553695E+0
0.930000,1.549813E+0
0.935000,1.546577E+0
0.940000,1.541401E+0
0.945000,1.539459E+0
0.950000,1.540754E+0
0.955000,1.536871E+0
0.960000,1.538165E+0
0.965000,1.535577E+0
0.970000,1.531695E+0
0.975000,1.531048E+0
0.980000,1.532989E+0
0.985000,1.532342E+0
0.990000,1.532989E+0
0.995000,1.535577E+0
1.000000,1.533636E+0
1.005000,1.534283E+0
1.010000,1.533636E+0
1.015000,1.531048E+0
1.020000,1.532989E+0
1.025000,1.528459E+0
1.030000,1.533636E+0
1.035000,1.534283E+0
1.040000,1.538165E+0
1.045000,1.540107E+0
1.050000,1.545930E+0
1.055000,1.545283E+0
1.060000,1.551107E+0
1.065000,1.551107E+0
1.070000,1.554989E+0
1.075000,1.558224E+0
1.080000,1.567930E+0
1.085000,1.571813E+0
1.090000,1.575695E+0
1.095000,1.580225E+0
1.100000,1.582166E+0
1.105000,1.585401E+0
1.110000,1.586048E+0
1.115000,1.591225E+0
1.120000,1.595107E+0
1.125000,1.600931E+0
1.130000,1.607401E+0
1.135000,1.615166E+0
1.140000,1.622931E+0
1.145000,1.627460E+0
1.150000,1.633931E+0
1.155000,1.638460E+0
1.160000,1.641696E+0
1.165000,1.652049E+0
1.170000,1.659813E+0
1.175000,1.668225E+0
1.180000,1.673402E+0
1.185000,1.682461E+0
1.190000,1.683108E+0
1.195000,1.693461E+0
1.200000,1.696696E+0
1.205000,1.699284E+0
1.210000,1.709637E+0
1.215000,1.711578E+0
1.220000,1.719343E+0
1.225000,1.729696E+0
1.230000,1.738755E+0
1.235000,1.743285E+0
1.240000,1.750402E+0
1.245000,1.756873E+0
1.250000,1.764638E+0
1.255000,1.767226E+0
1.260000,1.778226E+0
1.265000,1.784050E+0
1.270000,1.792461E+0
1.275000,1.799579E+0
1.280000,1.801520E+0
1.285000,1.807344E+0
1.290000,1.811873E+0
1.295000,1.817050E+0
1.300000,1.819638E+0
1.305000,1.826109E+0
1.310000,1.830638E+0
1.315000,1.837109E+0
1.320000,1.844226E+0
1.325000,1.850050E+0
1.330000,1.853932E+0
1.335000,1.859109E+0
1.340000,1.862991E+0
1.345000,1.866874E+0
1.350000,1.873991E+0
1.355000,1.877874E+0
1.360000,1.882403E+0
1.365000,1.888227E+0
1.370000,1.887580E+0
1.375000,1.892109E+0
1.380000,1.890168E+0
1.385000,1.892756E+0
1.390000,1.893403E+0
1.395000,1.895992E+0
1.400000,1.899227E+0
1.405000,1.898580E+0
1.410000,1.905697E+0
1.415000,1.907639E+0
1.420000,1.907639E+0
1.425000,1.910874E+0
1.430000,1.911521E+0
1.435000,1.911521E+0
1.440000,1.908286E+0
1.445000,1.912815E+0
1.450000,1.910874E+0
1.455000,1.913462E+0
1.460000,1.914109E+0
1.465000,1.908933E+0
1.470000,1.906345E+0
1.475000,1.903756E+0
1.480000,1.903109E+0
1.485000,1.897933E+0
1.490000,1.895992E+0
1.495000,1.893403E+0
1.500000,1.891462E+0
1.505000,1.889521E+0
1.510000,1.890168E+0
1.515000,1.884991E+0
1.520000,1.882403E+0
1.525000,1.876580E+0
1.530000,1.874638E+0
1.535000,1.873344E+0
1.540000,1.866874E+0
1.545000,1.866227E+0
1.550000,1.861050E+0
1.555000,1.854579E+0
1.560000,1.849403E+0
1.565000,1.842285E+0
1.570000,1.835815E+0
1.575000,1.830638E+0
1.580000,1.827403E+0
1.585000,1.815756E+0
1.590000,1.815756E+0
1.595000,1.809932E+0
1.600000,1.806050E+0
1.605000,1.798285E+0
1.610000,1.793755E+0
1.615000,1.786638E+0
1.620000,1.780167E+0
1.625000,1.771755E+0
1.630000,1.765932E+0
1.635000,1.762049E+0
1.640000,1.755579E+0
1.645000,1.750402E+0
1.650000,1.741343E+0
1.655000,1.732284E+0
1.660000,1.724520E+0
1.665000,1.715461E+0
1.670000,1.712225E+0
1.675000,1.703167E+0
1.680000,1.700578E+0
1.685000,1.690872E+0
1.690000,1.688284E+0
1.695000,1.681813E+0
1.700000,1.677931E+0
1.705000,1.667578E+0
1.710000,1.664990E+0
1.715000,1.654637E+0
1.720000,1.649460E+0
1.725000,1.645578E+0
1.730000,1.638460E+0
1.735000,1.637166E+0
1.740000,1.628754E+0
1.745000,1.622284E+0
1.750000,1.613225E+0
1.755000,1.608048E+0
1.760000,1.600931E+0
1.765000,1.599636E+0
1.770000,1.590578E+0
1.775000,1.587342E+0
1.780000,1.584107E+0
1.785000,1.582166E+0
1.790000,1.578283E+0
1.795000,1.575048E+0
1.800000,1.567283E+0
1.805000,1.566636E+0
1.810000,1.559518E+0
1.815000,1.558871E+0
1.820000,1.556930E+0
1.825000,1.552401E+0
1.830000,1.553048E+0
1.835000,1.547224E+0
1.840000,1.545930E+0
1.845000,1.541401E+0
1.850000,1.538165E+0
1.855000,1.535577E+0
1.860000,1.535577E+0
1.865000,1.532989E+0
1.870000,1.534930E+0
1.875000,1.536224E+0
1.880000,1.537518E+0
1.885000,1.539459E+0
1.890000,1.538165E+0
1.895000,1.537518E+0
1.900000,1.537518E+0
1.905000,1.536224E+0
1.910000,1.542048E+0
1.915000,1.542695E+0
1.920000,1.544636E+0
1.925000,1.545930E+0
1.930000,1.543342E+0
1.935000,1.547871E+0
1.940000,1.544636E+0
1.945000,1.548518E+0
1.950000,1.551107E+0
1.955000,1.554989E+0
1.960000,1.556930E+0
1.965000,1.563401E+0
1.970000,1.568577E+0
1.975000,1.571813E+0
1.980000,1.578283E+0
1.985000,1.580225E+0
1.990000,1.585401E+0
1.995000,1.588636E+0
2.000000,1.593166E+0
2.005000,1.598342E+0
2.010000,1.608048E+0
2.015000,1.609989E+0
2.020000,1.617754E+0
2.025000,1.615813E+0
2.030000,1.620990E+0
2.035000,1.625519E+0
2.040000,1.633931E+0
2.045000,1.636519E+0
2.050000,1.645578E+0
2.055000,1.651401E+0
2.060000,1.658519E+0
2.065000,1.669519E+0
2.070000,1.672755E+0
2.075000,1.682461E+0
2.080000,1.686990E+0
2.085000,1.692814E+0
2.090000,1.697990E+0
2.095000,1.705108E+0
2.100000,1.712873E+0
2.105000,1.721284E+0
2.110000,1.727755E+0
2.115000,1.729696E+0
2.120000,1.736167E+0
2.125000,1.738755E+0
2.130000,1.748461E+0
2.135000,1.752343E+0
2.140000,1.762696E+0
2.145000,1.767873E+0
2.150000,1.773049E+0
2.155000,1.782755E+0
2.160000,1.790520E+0
2.165000,1.797638E+0
2.170000,1.799579E+0
2.175000,1.804756E+0
2.180000,1.811873E+0
2.185000,1.818991E+0
2.190000,1.824167E+0
2.195000,1.831285E+0
2.200000,1.835815E+0
2.205000,1.840991E+0
2.210000,1.843579E+0
2.215000,1.847462E+0
2.220000,1.851344E+0
2.225000,1.854579E+0
2.230000,1.859756E+0
2.235000,1.864285E+0
2.240000,1.869462E+0
2.245000,1.876580E+0
2.250000,1.879815E+0
2.255000,1.883050E+0
2.260000,1.886933E+0
2.265000,1.890168E+0
2.270000,1.892109E+0
2.275000,1.892756E+0
2.280000,1.899227E+0
2.285000,1.899227E+0
2.290000,1.905697E+0
2.295000,1.904403E+0
2.300000,1.905697E+0
2.305000,1.905050E+0
2.310000,1.905697E+0
2.315000,1.904403E+0
2.320000,1.908286E+0
2.325000,1.906992E+0
2.330000,1.907639E+0
2.335000,1.908933E+0
2.340000,1.909580E+0
2.345000,1.912168E+0
2.350000,1.911521E+0
2.355000,1.905697E+0
2.360000,1.904403E+0
2.365000,1.905697E+0
2.370000,1.900521E+0
2.375000,1.900521E+0
2.380000,1.899227E+0
2.385000,1.900521E+0
2.390000,1.892756E+0
2.395000,1.890815E+0
2.400000,1.883697E+0
2.405000,1.879815E+0
2.410000,1.876580E+0
2.415000,1.872697E+0
2.420000,1.872697E+0
2.425000,1.869462E+0
2.430000,1.866227E+0
2.435000,1.864932E+0
2.440000,1.859109E+0
2.445000,1.853932E+0
2.450000,1.850050E+0
2.455000,1.843579E+0
2.460000,1.837756E+0
2.465000,1.832579E+0
2.470000,1.827403E+0
2.475000,1.822873E+0
2.480000,1.818344E+0
2.485000,1.809932E+0
2.490000,1.805403E+0
2.495000,1.793755E+0
2.500000,1.788579E+0
2.505000,1.783402E+0
2.510000,1.774344E+0
2.515000,1.773049E+0
2.520000,1.766579E+0
2.525000,1.761402E+0
2.530000,1.756226E+0
2.535000,1.747814E+0
2.540000,1.745226E+0
2.545000,1.736814E+0
2.550000,1.729696E+0
2.555000,1.721284E+0
2.560000,1.715461E+0
2.565000,1.708343E+0
2.570000,1.705108E+0
2.575000,1.695402E+0
2.580000,1.689578E+0
2.585000,1.677284E+0
2.590000,1.670166E+0
2.595000,1.664990E+0
2.600000,1.659813E+0
2.605000,1.653990E+0
2.610000,1.648166E+0
2.615000,1.644284E+0
2.620000,1.639107E+0
2.625000,1.633931E+0
2.630000,1.626813E+0
2.635000,1.624225E+0
2.640000,1.614519E+0
2.645000,1.610636E+0
2.650000,1.602225E+0
2.655000,1.602225E+0
2.660000,1.595107E+0
2.665000,1.593813E+0
2.670000,1.584754E+0
2.675000,1.578930E+0
2.680000,1.573107E+0
2.685000,1.569871E+0
2.690000,1.565342E+0
2.695000,1.561460E+0
2.700000,1.558224E+0
2.705000,1.558224E+0
2.710000,1.554342E+0
2.715000,1.554342E+0
2.720000,1.549165E+0
2.725000,1.547224E+0
2.730000,1.545930E+0
2.735000,1.540107E+0
2.740000,1.539459E+0
2.745000,1.538165E+0
2.750000,1.536224E+0
2.755000,1.540107E+0
2.760000,1.534283E+0
2.765000,1.533636E+0
2.770000,1.530401E+0
2.775000,1.531048E+0
2.780000,1.530401E+0
2.785000,1.532342E+0
2.790000,1.532342E+0
2.795000,1.536224E+0
2.800000,1.533636E+0
2.805000,1.540754E+0
2.810000,1.540754E+0
2.815000,1.542048E+0
2.820000,1.544636E+0
2.825000,1.543342E+0
2.830000,1.545283E+0
2.835000,1.547871E+0
2.840000,1.549813E+0
2.845000,1.555636E+0
2.850000,1.560813E+0
2.855000,1.562754E+0
2.860000,1.563401E+0
2.865000,1.564048E+0
2.870000,1.567930E+0
2.875000,1.573754E+0
2.880000,1.576342E+0
2.885000,1.582813E+0
2.890000,1.591225E+0
2.895000,1.593166E+0
2.900000,1.602872E+0
2.905000,1.605460E+0
2.910000,1.613872E+0
2.915000,1.615166E+0
2.920000,1.620342E+0
2.925000,1.626166E+0
2.930000,1.630695E+0
2.935000,1.641048E+0
2.940000,1.643637E+0
2.945000,1.652049E+0
2.950000,1.655284E+0
2.955000,1.660460E+0
2.960000,1.666284E+0
2.965000,1.669519E+0
2.970000,1.679872E+0
2.975000,1.684402E+0
2.980000,1.695402E+0
2.985000,1.701225E+0
2.990000,1.709637E+0
2.995000,1.716108E+0
3.000000,1.722578E+0
3.005000,1.728402E+0
3.010000,1.734873E+0
3.015000,1.740696E+0
3.020000,1.743932E+0
3.025000,1.754285E+0
3.030000,1.757520E+0
3.035000,1.765932E+0
3.040000,1.772402E+0
3.045000,1.778226E+0
3.050000,1.780167E+0
3.055000,1.789226E+0
3.060000,1.795050E+0
3.065000,1.803461E+0
3.070000,1.808638E+0
3.075000,1.817050E+0
3.080000,1.822873E+0
3.085000,1.829991E+0
3.090000,1.835815E+0
3.095000,1.838403E+0
3.100000,1.845521E+0
3.105000,1.850050E+0
3.110000,1.851344E+0
3.115000,1.857168E+0
3.120000,1.862991E+0
3.125000,1.865580E+0
3.130000,1.872050E+0
3.135000,1.872050E+0
3.140000,1.875933E+0
3.145000,1.878521E+0
3.150000,1.882403E+0
3.155000,1.886933E+0
3.160000,1.890815E+0
3.165000,1.895992E+0
3.170000,1.897286E+0
3.175000,1.899874E+0
3.180000,1.904403E+0
3.185000,1.905050E+0
3.190000,1.905697E+0
3.195000,1.908286E+0
3.200000,1.906992E+0
3.205000,1.906345E+0
3.210000,1.908286E+0
3.215000,1.910227E+0
3.220000,1.910874E+0
3.225000,1.910874E+0
3.230000,1.906345E+0
3.235000,1.907639E+0
3.240000,1.903756E+0
3.245000,1.904403E+0
3.250000,1.903109E+0
3.255000,1.903756E+0
3.260000,1.904403E+0
3.265000,1.901815E+0
3.270000,1.902462E+0
3.275000,1.899227E+0
3.280000,1.894050E+0
3.285000,1.894697E+0
3.290000,1.886286E+0
3.295000,1.884991E+0
3.300000,1.880462E+0
3.305000,1.879815E+0
3.310000,1.876580E+0
3.315000,1.870756E+0
3.320000,1.866874E+0
3.325000,1.862344E+0
3.330000,1.855874E+0
3.335000,1.850050E+0
3.340000,1.849403E+0
3.345000,1.843579E+0
3.350000,1.839697E+0
3.355000,1.835168E+0
3.360000,1.831285E+0
3.365000,1.825462E+0
3.370000,1.822226E+0
3.375000,1.815109E+0
3.380000,1.805403E+0
3.385000,1.802167E+0
3.390000,1.793755E+0
3.395000,1.785991E+0
3.400000,1.781461E+0
3.405000,1.777579E+0
3.410000,1.769814E+0
3.415000,1.760108E+0
3.420000,1.752343E+0
3.425000,1.745873E+0
3.430000,1.743932E+0
3.435000,1.737461E+0
3.440000,1.731637E+0
3.445000,1.724520E+0
3.450000,1.721284E+0
3.455000,1.712225E+0
3.460000,1.709637E+0
3.465000,1.699931E+0
3.470000,1.693461E+0
3.475000,1.685696E+0
3.480000,1.681166E+0
3.485000,1.668872E+0
3.490000,1.667578E+0
3.495000,1.661107E+0
3.500000,1.653990E+0
3.505000,1.647519E+0
3.510000,1.640401E+0
3.515000,1.633931E+0
3.520000,1.627460E+0
3.525000,1.624872E+0
3.530000,1.617754E+0
3.535000,1.616460E+0
3.540000,1.608048E+0
3.545000,1.607401E+0
3.550000,1.598989E+0
3.555000,1.596401E+0
3.560000,1.589283E+0
3.565000,1.586695E+0
3.570000,1.578283E+0
3.575000,1.575695E+0
3.580000,1.569224E+0
3.585000,1.569224E+0
3.590000,1.562754E+0
3.595000,1.561460E+0
3.600000,1.557577E+0
3.605000,1.553695E+0
3.610000,1.550460E+0
3.615000,1.549165E+0
3.620000,1.548518E+0
3.625000,1.545283E+0
3.630000,1.546577E+0
3.635000,1.542695E+0
3.640000,1.545283E+0
3.645000,1.540754E+0
3.650000,1.540754E+0
3.655000,1.537518E+0
3.660000,1.538165E+0
3.665000,1.532989E+0
3.670000,1.536871E+0
3.675000,1.532342E+0
3.680000,1.538165E+0
3.685000,1.538812E+0
3.690000,1.535577E+0
3.695000,1.538165E+0
3.700000,1.536224E+0
3.705000,1.539459E+0
3.710000,1.538812E+0
3.715000,1.547871E+0
3.720000,1.548518E+0
3.725000,1.553048E+0
3.730000,1.556283E+0
3.735000,1.556930E+0
3.740000,1.559518E+0
3.745000,1.564048E+0
3.750000,1.565342E+0
3.755000,1.566636E+0
3.760000,1.570519E+0
3.765000,1.573754E+0
3.770000,1.578283E+0
3.775000,1.586695E+0
3.780000,1.588636E+0
3.785000,1.595107E+0
3.790000,1.596401E+0
3.795000,1.601578E+0
3.800000,1.608695E+0
3.805000,1.613225E+0
3.810000,1.620990E+0
3.815000,1.628107E+0
3.820000,1.633931E+0
3.825000,1.641696E+0
3.830000,1.646872E+0
3.835000,1.652049E+0
3.840000,1.657225E+0
3.845000,1.661107E+0
3.850000,1.667578E+0
3.855000,1.674049E+0
3.860000,1.677931E+0
3.865000,1.686990E+0
3.870000,1.692814E+0
3.875000,1.699284E+0
3.880000,1.705755E+0
3.885000,1.711578E+0
3.890000,1.716755E+0
3.895000,1.721931E+0
3.900000,1.731637E+0
3.905000,1.739402E+0
3.910000,1.747167E+0
3.915000,1.754932E+0
3.920000,1.762696E+0
3.925000,1.765932E+0
3.930000,1.773697E+0
3.935000,1.776932E+0
3.940000,1.782755E+0
3.945000,1.788579E+0
3.950000,1.794403E+0
3.955000,1.800873E+0
3.960000,1.809285E+0
3.965000,1.813814E+0
3.970000,1.817050E+0
3.975000,1.822226E+0
3.980000,1.829344E+0
3.985000,1.835168E+0
3.990000,1.840991E+0
3.995000,1.848756E+0
4.000000,1.851344E+0
4.005000,1.859756E+0
4.010000,1.862344E+0
4.015000,1.866874E+0
4.020000,1.871403E+0
4.025000,1.873344E+0
4.030000,1.875285E+0
4.035000,1.878521E+0
4.040000,1.881109E+0
4.045000,1.887580E+0
4.050000,1.886933E+0
4.055000,1.892756E+0
4.060000,1.891462E+0
4.065000,1.895992E+0
4.070000,1.895344E+0
4.075000,1.900521E+0
4.080000,1.899874E+0
4.085000,1.905050E+0
4.090000,1.905697E+0
4.095000,1.909580E+0
4.100000,1.908933E+0
4.105000,1.910874E+0
4.110000,1.907639E+0
4.115000,1.909580E+0
4.120000,1.906345E+0
4.125000,1.905697E+0
4.130000,1.904403E+0
4.135000,1.905050E+0
4.140000,1.905050E+0
4.145000,1.903109E+0
4.150000,1.901168E+0
4.155000,1.900521E+0
4.160000,1.894050E+0
4.165000,1.894050E+0
4.170000,1.891462E+0
4.175000,1.892109E+0
4.180000,1.889521E+0
4.185000,1.887580E+0
4.190000,1.884344E+0
4.195000,1.879815E+0
4.200000,1.878521E+0
4.205000,1.871403E+0
4.210000,1.868168E+0
4.215000,1.860403E+0
4.220000,1.855227E+0
4.225000,1.850050E+0
4.230000,1.846168E+0
4.235000,1.846168E+0
4.240000,1.837756E+0
4.245000,1.835815E+0
4.250000,1.828050E+0
4.255000,1.822873E+0
4.260000,1.817050E+0
4.265000,1.811873E+0
4.270000,1.806697E+0
4.275000,1.804756E+0
4.280000,1.797638E+0
4.285000,1.792461E+0
4.290000,1.785991E+0
4.295000,1.778226E+0
4.300000,1.769814E+0
4.305000,1.765285E+0
4.310000,1.755579E+0
4.315000,1.750402E+0
4.320000,1.740049E+0
4.325000,1.736814E+0
4.330000,1.731637E+0
4.335000,1.721931E+0
4.340000,1.718049E+0
4.345000,1.712873E+0
4.350000,1.701225E+0
4.355000,1.695402E+0
4.360000,1.692814E+0
4.365000,1.684402E+0
4.370000,1.683108E+0
4.375000,1.672755E+0
4.380000,1.668872E+0
4.385000,1.661107E+0
4.390000,1.654637E+0
4.395000,1.647519E+0
4.400000,1.641696E+0
4.405000,1.633931E+0
4.410000,1.628754E+0
4.415000,1.621637E+0
4.420000,1.619695E+0
4.425000,1.611931E+0
4.430000,1.610636E+0
4.435000,1.600283E+0
4.440000,1.597695E+0
4.445000,1.592519E+0
4.450000,1.589283E+0
4.455000,1.584754E+0
4.460000,1.582166E+0
4.465000,1.578930E+0
4.470000,1.575048E+0
4.475000,1.571166E+0
4.480000,1.565989E+0
4.485000,1.562107E+0
4.490000,1.555636E+0
4.495000,1.552401E+0
4.500000,1.549165E+0
4.505000,1.547224E+0
4.510000,1.545930E+0
4.515000,1.542695E+0
4.520000,1.542048E+0
4.525000,1.542048E+0
4.530000,1.536224E+0
4.535000,1.537518E+0
